File: 02_normalization/deci_norm.csv
Cement (component 1)(kg in a m^3 mixture),Blast Furnace Slag (component 2)(kg in a m^3 mixture),Fly Ash (component 3)(kg in a m^3 mixture),Water  (component 4)(kg in a m^3 mixture),Superplasticizer (component 5)(kg in a m^3 mixture),Coarse Aggregate  (component 6)(kg in a m^3 mixture),Fine Aggregate (component 7)(kg in a m^3 mixture),Age (day),"Concrete compressive strength(MPa, megapascals) "
0.54,0.0,0.0,0.162,0.025,0.104,0.676,0.028,79.9861
0.38,0.095,0.0,0.228,0.0,0.0932,0.594,0.365,43.6983
0.4275,0.0475,0.0,0.228,0.0,0.0932,0.594,0.27,43.013
0.38,0.095,0.0,0.228,0.0,0.0932,0.594,0.09,40.5633
0.38,0.0,0.0,0.228,0.0,0.0932,0.67,0.365,52.5167
0.304,0.076,0.0,0.228,0.0,0.0932,0.67,0.365,55.2601
0.2375,0.2375,0.0,0.228,0.0,0.0932,0.594,0.028,30.0798
0.2375,0.2375,0.0,0.228,0.0,0.0932,0.594,0.365,38.9954
0.2375,0.2375,0.0,0.228,0.0,0.0932,0.594,0.007,26.258
0.1396,0.2094,0.0,0.192,0.0,0.1047,0.8069,0.007,14.5893
0.304,0.076,0.0,0.228,0.0,0.0932,0.67,0.27,54.3783
0.1396,0.2094,0.0,0.192,0.0,0.1047,0.8069,0.36,44.698
0.425,0.1063,0.0,0.1535,0.165,0.08521,0.8871,0.003,33.3982
0.3886,0.0971,0.0,0.1579,0.121,0.08521,0.9257,0.003,28.0961
0.3237,0.2828,0.0,0.1838,0.103,0.09427,0.6599,0.003,28.2961
0.3899,0.189,0.0,0.1459,0.22,0.09447,0.7558,0.003,40.5963
0.425,0.1063,0.0,0.1514,0.186,0.0936,0.8037,0.007,46.8016
0.5313,0.0,0.0,0.1418,0.282,0.08521,0.8937,0.007,46.8982
0.3795,0.1512,0.0,0.1539,0.159,0.11343,0.605,0.007,47.0981
0.3626,0.189,0.0,0.1649,0.116,0.09447,0.7558,0.007,22.8975
0.375,0.0938,0.0,0.1266,0.234,0.08521,0.9926,0.028,56.6956
0.425,0.1063,0.0,0.1535,0.165,0.08521,0.8871,0.028,60.2947
0.3626,0.189,0.0,0.1649,0.116,0.09447,0.7558,0.028,71.2987
0.3379,0.189,0.0,0.1749,0.095,0.09447,0.7558,0.028,49.8974
0.475,0.1188,0.0,0.1811,0.089,0.08521,0.7815,0.056,72.2985
0.3188,0.2125,0.0,0.1557,0.143,0.08521,0.8804,0.056,66.1001
0.2863,0.2009,0.0,0.1447,0.112,0.10046,0.8037,0.056,72.9948
0.374,0.1892,0.0,0.1701,0.101,0.09261,0.7567,0.091,64.9004
0.469,0.1172,0.0,0.1378,0.322,0.08521,0.8405,0.091,70.6989
0.4018,0.0947,0.0,0.1474,0.114,0.09468,0.8521,0.091,75.4976
0.439,0.177,0.0,0.186,0.111,0.08849,0.7079,0.091,73.2982
0.22236,0.0,0.09667,0.18929,0.0446,0.096708,0.87032,0.028,24.8901
0.23381,0.0,0.09458,0.19789,0.04567,0.094704,0.85216,0.056,27.6618
0.19468,0.0,0.10052,0.16562,0.0748,0.10064,0.9059,0.1,37.342
0.21207,0.0,0.12162,0.18031,0.0569,0.10576,0.77932,0.003,12.4726
0.22997,0.0,0.11831,0.19547,0.0463,0.10294,0.75859,0.014,20.0844
0.19034,0.0,0.12518,0.16185,0.0988,0.10881,0.80259,0.028,28.4685
0.16609,0.0,0.16327,0.17646,0.0449,0.10586,0.78009,0.056,28.627
0.16795,0.04208,0.16383,0.12175,0.0572,0.10587,0.78011,0.1,39.2312
0.21376,0.09806,0.02452,0.18174,0.0665,0.1066,0.78552,0.003,13.1828
0.22968,0.0,0.11816,0.19523,0.0613,0.10281,0.75763,0.014,22.3183
0.23805,0.0,0.09411,0.18666,0.07,0.094991,0.84701,0.028,30.2335
0.25,0.0,0.09569,0.18742,0.0553,0.095686,0.86117,0.056,38.328
0.21252,0.0,0.10037,0.15932,0.0871,0.10078,0.90359,0.1,42.9199
0.212,0.0,0.12478,0.159,0.0784,0.10854,0.79954,0.003,19.5191
0.23175,0.0,0.12162,0.17396,0.0672,0.10564,0.77845,0.014,26.7724
0.25137,0.0,0.11827,0.18845,0.0575,0.10284,0.75773,0.028,29.6544
0.25137,0.0,0.11827,0.18845,0.0635,0.10284,0.75773,0.056,36.6388
0.18138,0.0,0.16701,0.16959,0.0756,0.10556,0.7778,0.1,45.3675
0.16888,0.04222,0.12425,0.15833,0.1083,0.10808,0.79615,0.003,7.39808
0.29035,0.0,0.09618,0.16808,0.0941,0.096118,0.865,0.014,34.6737
0.27705,0.0,0.09739,0.1606,0.1183,0.09739,0.87561,0.028,48.284
0.29571,0.0,0.09564,0.17154,0.0887,0.095514,0.8592,0.056,48.7184
0.25181,0.0,0.09994,0.14614,0.1235,0.1006,0.89976,0.1,45.3675
0.25231,0.0,0.09875,0.14625,0.1417,0.098776,0.88901,0.003,21.7805
0.24683,0.0,0.12508,0.1433,0.1199,0.10868,0.80089,0.014,42.2166
0.27507,0.0,0.12135,0.15948,0.099,0.10536,0.7775,0.028,51.3315
0.29716,0.0,0.11754,0.1748,0.0952,0.10228,0.75345,0.056,51.9589
0.21374,0.0,0.17474,0.15479,0.1016,0.10535,0.77635,0.1,50.0766
0.27719,0.09782,0.02446,0.1607,0.1119,0.10617,0.78246,0.003,30.4473
0.21823,0.05464,0.12378,0.14075,0.1191,0.10757,0.79267,0.014,35.9562
0.2149,0.0538,0.12189,0.15563,0.0961,0.10143,0.78058,0.028,52.2002
0.21885,0.0,0.12413,0.15849,0.1133,0.10787,0.79491,0.056,37.2662
0.376,0.0,0.0,0.2146,0.0,0.10035,0.76236,0.1,43.0578
0.516,0.0,0.0,0.162,0.082,0.0801,0.802,0.028,41.36856
0.4501,0.05,0.0,0.2,0.03,0.11244,0.6132,0.028,39.376
0.516,0.0,0.0,0.162,0.0826,0.0801,0.802,0.028,41.36856
0.285,0.19,0.0,0.163,0.076,0.1031,0.685,0.028,53.5792
0.17803,0.1298,0.1186,0.17994,0.0357,0.10073,0.7468,0.003,20.7256
0.19034,0.0,0.12518,0.16661,0.0988,0.1079,0.7989,0.003,12.5485
0.165,0.1285,0.1321,0.17506,0.0808,0.10058,0.7466,0.014,33.088
0.17381,0.09337,0.1599,0.17234,0.0973,0.10072,0.7466,0.014,29.5509
0.165,2e-05,0.14357,0.16381,0.0,0.10056,0.9009,0.028,26.2001
0.167,0.0754,0.167,0.16403,0.0791,0.10073,0.7701,0.028,41.4099
0.25137,0.0,0.11827,0.19294,0.0575,0.10436,0.7543,0.028,33.2741
0.17354,0.05005,0.17353,0.16477,0.0647,0.10062,0.7935,0.056,53.7722
0.19468,0.0,0.10052,0.17017,0.0748,0.0998,0.9018,0.056,43.3887
0.17238,0.01361,0.17237,0.15676,0.0414,0.10063,0.8564,0.1,37.6799
0.2135,0.0,0.17424,0.15921,0.1166,0.10436,0.7719,0.1,52.9587
0.446,0.024,0.079,0.162,0.103,0.0967,0.712,0.028,53.3861
0.446,0.024,0.079,0.162,0.1164,0.0967,0.712,0.007,39.3001
0.387,0.02,0.094,0.157,0.1393,0.0938,0.845,0.028,46.6844
0.387,0.02,0.094,0.157,0.1393,0.0938,0.845,0.007,45.8984
0.355,0.019,0.097,0.145,0.1225,0.0967,0.871,0.028,55.4546
0.491,0.026,0.123,0.201,0.0393,0.0822,0.699,0.003,29.549
0.424,0.022,0.132,0.178,0.0848,0.0822,0.75,0.007,39.0046
0.202,0.011,0.141,0.206,0.0172,0.0942,0.801,0.003,9.84966
0.284,0.015,0.141,0.179,0.0546,0.0842,0.801,0.056,44.5205
0.359,0.019,0.141,0.154,0.1091,0.0942,0.801,0.007,38.6107
0.393,0.0,0.0,0.192,0.0,0.09406,0.7856,0.003,19.1991
0.48,0.0,0.0,0.192,0.0,0.09362,0.7122,0.003,24.4047
0.333,0.0,0.0,0.192,0.0,0.09312,0.8426,0.028,31.9669
0.1588,0.2382,0.0,0.1857,0.0,0.10406,0.7343,0.007,9.6175
0.2728,0.1819,0.0,0.1857,0.0,0.10124,0.7143,0.007,19.7652
0.1588,0.2382,0.0,0.1857,0.0,0.10406,0.7343,0.028,21.0662
0.2958,0.0,0.0,0.1857,0.0,0.10914,0.7693,0.028,25.2169
0.3392,0.0,0.0,0.1857,0.0,0.10692,0.7543,0.007,21.1793
0.1703,0.1555,0.0,0.1857,0.0,0.10266,0.7243,0.028,25.7264
0.1862,0.1241,0.0,0.1857,0.0,0.10834,0.7643,0.007,7.99585
0.3161,0.2107,0.0,0.1857,0.0,0.0977,0.6893,0.007,24.4378
0.339,0.0,0.0,0.197,0.0,0.0968,0.781,0.014,27.0412
0.236,0.0,0.0,0.194,0.0,0.0968,0.885,0.014,12.838
0.277,0.0,0.0,0.191,0.0,0.0968,0.856,0.028,25.9657
0.254,0.0,0.0,0.198,0.0,0.0968,0.863,0.09,26.9447
0.307,0.0,0.0,0.193,0.0,0.0968,0.812,0.028,27.5308
0.225,0.0,0.0,0.181,0.0,0.1113,0.833,0.028,17.3403
0.3,0.0,0.0,0.184,0.0,0.1075,0.795,0.028,26.8482
0.25,0.0,0.0,0.182,0.0,0.11,0.82,0.028,20.8704
0.1413,0.212,0.0,0.2035,0.0,0.09718,0.7485,0.028,29.8922
0.1226,0.1839,0.0,0.2035,0.0,0.09582,0.8001,0.028,24.2909
0.116,0.173,0.0,0.192,0.0,0.09098,0.8919,0.09,31.0237
0.192,0.288,0.0,0.192,0.0,0.09298,0.7161,0.003,12.7884
0.173,0.116,0.0,0.192,0.0,0.09468,0.8568,0.003,6.94095
0.288,0.192,0.0,0.192,0.0,0.0932,0.7178,0.028,38.8044
0.192,0.288,0.0,0.192,0.0,0.09298,0.7161,0.09,50.7323
0.288,0.192,0.0,0.192,0.0,0.0932,0.7178,0.007,23.5235
0.1839,0.1226,0.0,0.2035,0.0,0.09592,0.8,0.007,10.7875
0.2,0.133,0.0,0.192,0.0,0.09654,0.8062,0.007,17.1659
0.116,0.173,0.0,0.192,0.0,0.09098,0.8919,0.003,6.28044
0.153,0.102,0.0,0.192,0.0,0.0888,0.9431,0.007,8.37438
0.2035,0.3053,0.0,0.2035,0.0,0.09634,0.63,0.09,51.8638
0.331,0.0,0.0,0.192,0.0,0.1025,0.821,0.003,14.3066
0.349,0.0,0.0,0.192,0.0,0.1056,0.809,0.007,9.01145
0.296,0.0,0.0,0.186,0.0,0.109,0.769,0.007,18.9123
0.281,0.0,0.0,0.186,0.0,0.1104,0.774,0.007,14.4997
0.5,0.0,0.0,0.2,0.0,0.1125,0.613,0.028,44.092
0.54,0.0,0.0,0.173,0.0,0.1125,0.613,0.27,74.1669
0.35,0.0,0.0,0.203,0.0,0.0974,0.775,0.18,32.7225
0.331,0.0,0.0,0.192,0.0,0.0978,0.825,0.18,38.9968
0.382,0.0,0.0,0.186,0.0,0.1111,0.784,0.007,11.466
0.238,0.0,0.0,0.185,0.0,0.1118,0.789,0.028,17.5403
0.331,0.0,0.0,0.192,0.0,0.0978,0.825,0.028,31.447
0.349,0.0,0.0,0.192,0.0,0.1047,0.806,0.36,42.127
0.5,0.0,0.0,0.2,0.0,0.1125,0.613,0.27,55.15808
0.393,0.0,0.0,0.192,0.0,0.094,0.758,0.028,39.5828
0.31,0.0,0.0,0.192,0.0,0.097,0.85,0.007,14.9892
0.525,0.0,0.0,0.189,0.0,0.1125,0.613,0.007,42.4235
0.322,0.0,0.0,0.203,0.0,0.0974,0.8,0.028,25.1797
0.522,0.0,0.0,0.146,0.0,0.0896,0.896,0.028,74.9874
0.31,0.143,0.111,0.168,0.22,0.0914,0.651,0.028,33.6878
0.31,0.143,0.0,0.168,0.1,0.0914,0.804,0.028,45.2986
0.366,0.187,0.0,0.191,0.07,0.0824,0.757,0.028,65.907
0.298,0.0,0.107,0.186,0.06,0.0879,0.815,0.028,42.6372
0.322,0.149,0.0,0.186,0.08,0.0951,0.709,0.028,52.4209
0.298,0.0,0.107,0.21,0.11,0.088,0.744,0.028,31.8745
0.149,0.139,0.109,0.193,0.06,0.0892,0.78,0.028,23.6904
0.146,0.23,0.0,0.202,0.03,0.0827,0.872,0.028,33.0604
0.14,0.133,0.103,0.2,0.07,0.0916,0.753,0.028,36.4388
0.153,0.145,0.0,0.178,0.08,0.1,0.822,0.028,19.0089
0.143,0.169,0.143,0.191,0.08,0.0967,0.643,0.028,29.7233
0.15,0.237,0.0,0.174,0.12,0.1069,0.675,0.028,37.4317
0.266,0.112,0.087,0.178,0.1,0.091,0.745,0.028,39.4173
0.277,0.117,0.091,0.191,0.07,0.0946,0.666,0.028,43.5749
0.145,0.0,0.179,0.202,0.08,0.0824,0.869,0.028,10.5352
0.136,0.196,0.098,0.199,0.06,0.0847,0.783,0.028,26.9654
0.159,0.209,0.161,0.201,0.07,0.0848,0.669,0.028,30.8816
0.2369,0.0917,0.0715,0.2469,0.06,0.08529,0.6954,0.028,28.6298
0.3133,0.145,0.0,0.1785,0.08,0.08672,0.824,0.028,40.9252
0.1531,0.145,0.113,0.1785,0.08,0.08672,0.824,0.028,26.2332
0.1507,0.0,0.1853,0.1667,0.156,0.10745,0.678,0.028,13.4613
0.284,0.1197,0.0,0.1683,0.072,0.09704,0.7942,0.028,40.9349
0.1548,0.0,0.1428,0.1933,0.091,0.10474,0.6967,0.028,12.4595
0.1457,0.1726,0.0,0.1819,0.034,0.09858,0.8168,0.028,23.7442
0.1552,0.1839,0.1432,0.1938,0.092,0.08796,0.6985,0.028,28.9911
0.1548,0.0,0.1428,0.1933,0.091,0.08772,0.8677,0.028,9.73816
0.1518,0.1781,0.1387,0.1675,0.183,0.0944,0.6946,0.028,36.3499
0.1526,0.2387,0.0,0.2,0.063,0.10018,0.6839,0.028,26.8599
0.3213,0.1642,0.0,0.1905,0.046,0.087,0.774,0.028,57.2182
0.1602,0.188,0.1464,0.2032,0.113,0.08287,0.7097,0.028,35.3143
0.132,0.2065,0.1609,0.1789,0.055,0.08669,0.7356,0.028,33.3065
0.2884,0.121,0.0,0.1774,0.07,0.09079,0.8295,0.028,42.1401
0.3222,0.0,0.1156,0.196,0.104,0.08179,0.8134,0.028,31.1788
0.2609,0.1005,0.0783,0.2006,0.086,0.08645,0.7615,0.028,32.4012