File: 02_normalization/minMax_norm.csv
Cement (component 1)(kg in a m^3 mixture),Blast Furnace Slag (component 2)(kg in a m^3 mixture),Fly Ash (component 3)(kg in a m^3 mixture),Water  (component 4)(kg in a m^3 mixture),Superplasticizer (component 5)(kg in a m^3 mixture),Coarse Aggregate  (component 6)(kg in a m^3 mixture),Fine Aggregate (component 7)(kg in a m^3 mixture),Age (day),"Concrete compressive strength(MPa, megapascals) "
1.0,0.0,0.0,0.321357,0.0776398,0.694767,0.20572,0.0741758,79.9861
0.374429,0.317195,0.0,0.848303,0.0,0.380814,0.190667,0.0741758,45.8543
0.0858447,0.582638,0.0,0.560878,0.0,0.715116,0.534119,0.244505,39.358
0.634703,0.0,0.0,0.848303,0.0,0.380814,0.190667,1.0,52.5167
0.220548,0.368392,0.0,0.560878,0.0,0.515698,0.580783,0.491758,41.7195
0.547945,0.105732,0.0,0.848303,0.0,0.380814,0.190667,0.244505,50.4593
0.309361,0.660824,0.0,0.848303,0.0,0.380814,0.0,0.0164835,26.258
0.851598,0.0,0.0,0.848303,0.0,0.380814,0.0,1.0,41.9346
0.374429,0.317195,0.0,0.848303,0.0,0.380814,0.190667,0.491758,48.6956
0.737443,0.295771,0.0,0.253493,0.512422,0.148547,0.735324,0.00549451,33.3982
0.737443,0.295771,0.0,0.253493,0.512422,0.148547,0.735324,0.00549451,33.3982
0.594977,0.525876,0.0,0.344511,0.360248,0.417733,0.405921,0.00549451,35.3012
0.737443,0.295771,0.0,0.236727,0.57764,0.392442,0.526091,0.0164835,46.8016
0.494977,0.591263,0.0,0.271058,0.444099,0.148547,0.718515,0.0164835,33.3982
0.769406,0.492487,0.0,0.512974,0.34472,0.243895,0.28575,0.0164835,56.0958
0.623288,0.260991,0.0,0.0387226,0.726708,0.148547,1,0.0741758,56.6956
0.684475,0.263495,0.0,0.20479,0.354037,0.423837,0.647516,0.0741758,68.4994
0.657306,0.525876,0.0,0.192814,0.68323,0.417733,0.405921,0.0741758,74.4979
0.851598,0.330551,0.0,0.473852,0.276398,0.148547,0.470396,0.151099,72.2985
0.594977,0.525876,0.0,0.344511,0.360248,0.417733,0.405921,0.151099,77.2972
0.594977,0.525876,0.0,0.344511,0.360248,0.417733,0.405921,0.151099,77.2972
0.8379,0.326099,0.0,0.128144,1.0,0.148547,0.618414,0.247253,70.6989
0.633562,0.420701,0.0,0.256687,0.493789,0.968895,0.0275966,0.247253,56.4957
0.274795,0.0,0.483108,0.539242,0.138509,0.482791,0.693226,0.00549451,11.5763
0.300936,0.0,0.472664,0.607904,0.141832,0.424535,0.647667,0.151099,27.6618
0.202466,0.0,0.626687,0.322475,0.241304,0.840116,0.526869,0.0357143,21.0635
0.251301,0.0,0.607796,0.467545,0.176708,0.74593,0.464927,0.271978,39.6104
0.201689,0.0,0.625587,0.32016,0.306832,0.834593,0.523307,0.0741758,28.4685
0.150571,0.117084,0.818741,0.0,0.17764,0.749128,0.466909,0.00549451,7.74971
0.255068,0.272816,0.122489,0.478723,0.213043,0.769767,0.48013,0.151099,50.773
0.291507,0.0,0.590505,0.586667,0.190373,0.660174,0.410512,0.0357143,22.3183
0.310616,0.0,0.470315,0.518244,0.217391,0.432878,0.634747,0.271978,44.2988
0.252329,0.0,0.501599,0.29996,0.270497,0.601163,0.776693,0.0741758,31.6401
0.251142,0.0,0.623588,0.297405,0.243478,0.826744,0.515655,0.00549451,19.5191
0.296233,0.0,0.607796,0.416846,0.208696,0.742442,0.462745,0.151099,42.6992
0.341027,0.0,0.591054,0.532535,0.197205,0.661047,0.410763,0.0357143,24.4281
0.181233,0.0,0.834633,0.381956,0.234783,0.740116,0.461114,0.271978,45.3675
0.152694,0.117474,0.62094,0.292056,0.336335,0.813372,0.50715,0.0741758,31.1161
0.399658,0.0,0.486707,0.31018,0.367391,0.502616,0.706498,0.00549451,23.1388
0.44226,0.0,0.477961,0.397525,0.275466,0.448081,0.665329,0.151099,48.7184
0.335845,0.0,0.493503,0.290299,0.397516,0.542907,0.740115,0.0357143,28.6822
0.343174,0.0,0.493503,0.195609,0.440062,0.542907,0.740115,0.271978,60.9497
0.395137,0.0,0.606447,0.301238,0.307453,0.734302,0.460361,0.0741758,51.3315
0.255114,0.0,0.873263,0.263792,0.315528,0.734012,0.457476,0.00549451,17.5747
0.254566,0.0,0.870765,0.262355,0.362112,0.730523,0.455294,0.151099,51.4349
0.265365,0.152031,0.618591,0.151697,0.369876,0.798547,0.498419,0.0357143,35.9562
0.257763,0.149694,0.609145,0.270499,0.298447,0.620058,0.468088,0.271978,56.6336
0.625571,0.0,0.0,0.741317,0.0,0.588663,0.422378,0.0741758,31.971
0.945205,0.0,0.0,0.321357,0.254658,0.0,0.521826,0.0741758,41.36856
0.527397,0.0486923,0.814593,0.361277,0.555901,0.56686,0.145509,0.0741758,47.2774
0.3379,0.500835,0.474763,0.297405,0.293478,0.171512,0.516809,0.0741758,67.8651
0.173584,0.361157,0.592704,0.464591,0.11087,0.599709,0.383342,0.00549451,20.7256
0.254566,0.0,0.870765,0.299082,0.362112,0.705233,0.446312,0.00549451,15.6097
0.163333,0.13926,0.867216,0.343473,0.200932,0.596512,0.500502,0.0357143,33.0052
0.143836,5.56483e-05,0.717491,0.335808,0.0,0.594767,0.769945,0.0741758,26.2001
0.201689,0.0,0.625587,0.358164,0.306832,0.80814,0.514049,0.0741758,24.8487
0.149201,0.361436,0.642779,0.428822,0.241925,0.596802,0.38284,0.151099,51.7245
0.211598,0.0,0.502349,0.386587,0.232298,0.572674,0.772203,0.151099,43.3887
0.148402,0.209794,0.834583,0.337565,0.245652,0.599709,0.441796,0.271978,56.8128
0.785388,0.066778,0.394803,0.321357,0.361491,0.482558,0.296036,0.0741758,44.4229
0.785388,0.066778,0.394803,0.321357,0.361491,0.482558,0.296036,0.0164835,39.3001
0.650685,0.0556483,0.469765,0.281437,0.44472,0.398256,0.629704,0.00549451,22.7527
0.650685,0.0556483,0.469765,0.281437,0.360559,0.398256,0.629704,0.151099,61.4599
0.888128,0.0723428,0.614693,0.632735,0.12205,0.0610465,0.263422,0.00549451,29.549
0.73516,0.0612131,0.65967,0.369261,0.277019,0.0610465,0.39137,0.00549451,32.1099
0.415525,0.0417362,0.704648,0.457086,0.169565,0.119186,0.519318,0.00549451,13.3955
0.586758,0.0528659,0.704648,0.257485,0.33882,0.409884,0.519318,0.0164835,38.6107
0.664384,0.0,0.0,0.560878,0.0,0.405814,0.480682,0.0741758,39.6049
0.426941,0.0,0.0,0.560878,0.0,0.326163,0.755896,0.0164835,14.5969
0.12968,0.662771,0.0,0.510579,0.0,0.696512,0.351982,0.0164835,9.6175
0.271233,0.409572,0.0,0.510579,0.0,0.738372,0.37707,0.0741758,25.745
0.673516,0.0,0.0,0.510579,0.0,0.696512,0.351982,0.0164835,25.4479
0.541553,0.0,0.0,0.510579,0.0,0.779651,0.402158,0.0164835,21.1793
0.287671,0.951864,0.0,0.510579,0.0,0.45,0.201455,0.0164835,21.9171
0.640411,0.0,0.0,0.510579,0.0,0.717442,0.364526,0.0741758,37.4379
0.541096,0.0,0.0,0.600798,0.0,0.485465,0.469142,0.0357143,27.0412
0.305936,0.0,0.0,0.576846,0.0,0.485465,0.730055,0.244505,21.946
0.399543,0.0,0.0,0.552894,0.0,0.485465,0.657301,0.986264,33.7016
0.468037,0.0,0.0,0.568862,0.0,0.485465,0.546914,0.0741758,27.5308
0.509132,0.0,0.0,0.497006,0.0,0.761628,0.47416,0.0741758,30.5714
0.680365,0.0,0.0,0.520958,0.0,0.651163,0.378826,0.0164835,30.1439
0.089726,0.589872,0.0,0.652695,0.0,0.496512,0.387607,0.0741758,29.8922
0.223744,0.370061,0.0,0.560878,0.0,0.477907,0.532363,0.00549451,11.4143
0.338356,0.464107,0.0,0.652695,0.0,0.513372,0.251129,0.0164835,19.3501
0.1621,0.32276,0.0,0.560878,0.0,0.423837,0.659308,0.00549451,6.94095
0.0,0.42571,0.0,0.560878,0.0,0.25,0.873056,0.0741758,17.2755
0.0143836,0.451864,0.0,0.652695,0.0,0.398837,0.639739,0.00549451,2.33181
0.186986,0.341124,0.0,0.652695,0.0,0.459884,0.516809,0.0164835,10.7875
0.338356,0.464107,0.0,0.652695,0.0,0.513372,0.251129,0.00549451,9.73126
0.205479,0.801336,0.0,0.560878,0.0,0.374419,0.306322,0.0164835,21.4806
0.231735,0.849471,0.0,0.652695,0.0,0.472093,0.0903161,0.244505,51.8638
0.522831,0.0,0.0,0.560878,0.0,0.651163,0.569493,0.0741758,31.7435
0.310502,0.0,0.0,0.512974,0.0,0.924419,0.489212,0.0164835,12.052
0.408676,0.0,0.0,0.512974,0.0,0.880814,0.451581,0.0164835,14.4997
1.0,0.0,0.0,0.409182,0.0,0.94186,0.0476668,0.0357143,59.7638
0.56621,0.0,0.0,0.648703,0.0,0.502907,0.454089,0.151099,29.9784
0.522831,0.0,0.0,0.560878,0.0,0.514535,0.579528,0.491758,38.9968
0.541096,0.0,0.0,0.50499,0.0,0.77907,0.401405,0.0164835,21.16
0.522831,0.0,0.0,0.560878,0.0,0.226744,0.579528,0.00549451,13.5206
0.563927,0.0,0.0,0.560878,0.0,0.715116,0.531862,0.986264,42.127
0.342466,0.0,0.0,0.50499,0.0,0.901163,0.476668,0.0164835,13.7137
0.342466,0.0,0.0,0.512974,0.0,0.901163,0.476668,0.0164835,11.466
0.965753,0.0,0.0,0.536926,0.0,0.94186,0.0476668,0.0164835,42.4235
0.456621,0.0,0.0,0.648703,0.0,0.502907,0.559458,0.0741758,21.753
0.10274,0.319978,0.444778,0.640719,0.279503,0.171512,0.589563,0.0741758,19.9879
0.474886,0.397885,0.0,0.369261,0.310559,0.328488,0.526844,0.0741758,45.2986
0.342466,0.269894,0.37981,0.576846,0.248447,0.0988372,0.569493,0.0741758,33.3982
0.579909,0.0,0.709645,0.568862,0.341615,0.0,0.461616,0.0741758,40.8652
0.447489,0.0,0.534733,0.704591,0.341615,0.229651,0.376317,0.0741758,31.8745
0.363014,0.278242,0.389805,0.632735,0.279503,0.18314,0.418966,0.0741758,32.3985
0.114155,0.0,0.55972,0.497006,0.248447,0.555233,0.556949,0.0741758,12.1761
0.116438,0.40345,0.0,0.449102,0.248447,0.578488,0.572002,0.0741758,19.0089
0.481735,0.447969,0.0,0.449102,0.310559,0.337209,0.413949,0.0741758,52.4415
0.121005,0.509182,0.0,0.568862,0.279503,0.22093,0.687406,0.0741758,23.7869
0.399543,0.325543,0.454773,0.552894,0.217391,0.421512,0.180632,0.0741758,43.5749
0.0776256,0.450751,0.629685,0.401198,0.310559,0.354651,0.426493,0.0741758,29.0683
0.107306,0.42571,0.969515,0.560878,0.248447,0.389535,0.0727546,0.0741758,24.5798
0.307991,0.255147,0.357321,0.999202,0.186335,0.150872,0.25439,0.0741758,28.6298
0.116667,0.40345,0.564718,0.453094,0.248447,0.584012,0.237582,0.0741758,25.5596
0.365068,0.307457,0.430285,0.588024,0.15528,0.273837,0.347717,0.0741758,33.7188
0.415525,0.333055,0.0,0.371657,0.223602,0.492442,0.502258,0.0741758,40.9349
0.0746575,0.0,0.828086,0.466667,0.310559,0.465116,0.529102,0.0741758,13.2938
0.447717,0.0,0.537231,0.334132,0.397516,0.442442,0.476668,0.0741758,35.8659
0.120548,0.0,0.713643,0.571257,0.282609,0.221512,0.686653,0.0741758,9.73816
0.0949772,0.0,0.874063,0.292615,0.555901,0.411919,0.62845,0.0741758,15.4236
0.0910959,0.46355,0.648176,0.413174,0.338509,0.237209,0.47993,0.0741758,44.6119
0.132877,0.523094,0.731634,0.650299,0.350932,0.0805233,0.290266,0.0741758,35.3143
0.142009,0.0,1.0,0.474651,0.391304,0.140407,0.632213,0.0741758,15.0913
0.146119,0.722593,0.0,0.490619,0.39441,0.168023,0.584044,0.0741758,37.917
0.362785,0.279633,0.391304,0.629541,0.267081,0.184593,0.420221,0.0741758,32.4012